       Omega           X           Y   Intensity
        8.00      708.00     1761.00     516.643
        5.00     1059.00      634.00     888.086
        0.00     1238.00     1469.00     991.639
       11.00     1224.00     1476.00     402.959
       29.00     1222.00     1478.00     180.093
       35.00     1233.00     1472.00     136.196
       47.00     1224.00     1477.00     288.149
       62.00     1228.00     1475.00    1279.789
       77.00     1229.00     1474.00    1339.445
        2.00     1479.00     1522.00      81.042
        7.00     1061.00      286.00      66.409
       10.00     1054.00      286.00      65.284
       19.00     1575.00      336.00     184.596
       26.00     1571.00      331.00     190.224
       28.00     1092.00      236.00     909.472
       29.00     1818.00      379.50     235.247
       33.00     1189.00     1874.00     117.061
       36.00      709.00     1762.00     592.057
       36.00     1069.00      636.00     293.777
       34.00     1306.00      693.00      84.419
       43.00      748.00     1364.00     558.290
       49.00     1352.00      296.00     265.638
       48.00     1594.00      353.00      74.289
       49.00      950.00     1816.00     762.020
       52.00     1190.00     1873.00     122.689
       55.00      588.00      518.00     129.442
       54.50     1839.50      410.50      72.037
       57.00     1068.00      637.00      94.549
       59.00     1469.00     1532.00     109.182
       66.00      603.00      129.00     180.093
       68.00     1471.00     1529.00     101.303
       71.00      989.00     1419.00     561.666
       69.00     1344.00      295.00      67.535
       69.00     1358.00      300.00      82.168
       72.00      578.00      528.00     129.442
       92.00      598.00      129.00     228.494
       92.00      601.00      129.00     228.494
       91.00     1154.00     1924.00      94.549
      106.00     1305.00      690.00     792.411
      116.00      330.00      477.00     816.048
      118.00      455.00     1753.00      70.912
      118.00     1046.00      287.00      77.665
      116.00     1064.00      635.00     929.732
      116.00     1105.00      238.00     767.648
      116.00     1267.00     1076.50     438.978
      149.00     1264.00     1087.00    1813.316
      157.00     1264.00     1087.00    1673.743
      186.00     1266.00     1085.00    2781.318
      123.00     1519.00     1011.00      94.549
      127.00     1519.00     1011.00      94.549
      133.00     1518.00     1011.00      93.423
      133.00     1520.00     1017.00      93.423
      141.00     1520.00     1018.00      94.549
      149.00     1520.00     1017.00      97.926
      161.00     1520.00     1017.00     101.303
      172.00     1519.00     1016.00     102.428
      178.00     1520.00     1018.00     103.554
      186.00     1519.00     1016.00      91.172
      193.50     1518.00     1017.00      93.423
      200.50     1518.00     1017.00      90.047
      214.00     1518.00     1017.00      84.419
      223.00     1519.00     1019.00      81.042
      121.00     1521.00     1170.00     147.451
      126.00     1534.00     1120.00      88.921
      127.00     1521.00     1177.00      65.284
      127.00     1526.00     1154.00      69.786
      128.00     1521.00     1170.00     133.944
      128.00     1528.00     1146.00      63.033
      134.00     1521.00     1177.00      61.907
      136.00     1521.00     1170.00     140.698
      142.00     1536.00     1115.00      83.293
      143.00     1521.00     1170.00     140.698
      149.00     1521.00     1170.00     147.451
      149.00     1526.00     1153.00     113.684
      150.00     1534.00     1119.00      72.037
      157.00     1521.00     1170.00     200.354
      157.00     1528.00     1146.00     135.070
      158.00     1534.00     1118.50      65.284
      172.00     1521.00     1170.00     120.437
      179.00     1521.00     1170.00     127.191
      185.67     1532.00     1136.33     318.540
      186.00     1521.00     1170.00     154.205
      193.00     1521.00     1170.00     173.340
      193.00     1532.00     1135.00     324.168
      199.00     1521.00     1170.00     108.056
      208.00     1521.00     1170.00     127.191
      215.00     1521.00     1170.00     147.451
      221.00     1521.00     1170.00     133.944
      228.00     1521.00     1170.00     120.437
      119.00     1545.00      744.00     135.070
      116.00     1835.00      403.00     173.340
      132.00      864.00      181.00     164.335
      133.00     1183.00      484.00     118.186
      138.00     1104.00      238.00    1151.472
      169.00      618.00      122.00     242.001
      180.00      470.00     1368.00     226.242
      203.00      947.00     1501.00     214.987
      211.00      206.00     1697.00      90.047
      215.00     1422.00     1980.00     217.238
      215.00     1704.00     1663.00      93.423
      300.00      545.00      923.00    3672.780
      315.00      549.00      905.00    7231.877
      321.00      549.00      907.00    7145.207
      329.00      549.00      908.00    6737.746
      336.00      547.00      917.00    5811.390
      237.00      624.00       77.00     238.624
      238.00      617.00       79.00     230.745
      237.00     1193.00     1516.00      77.665
      250.00     1195.00     1564.00    3080.723
      282.00     1218.00     1556.00    2531.438
      306.00     1213.00     1557.00    4846.764
      313.00     1199.00     1563.00    1189.742
      232.00     1267.00     1077.00     187.973
      233.00     1518.00     1018.00      83.293
      243.00     1518.00     1017.00      76.540
      252.00     1518.00     1019.00      77.665
      258.00     1518.00     1019.00      78.791
      264.00     1518.50     1021.00      70.912
      271.00     1518.00     1021.00      73.163
      279.00     1518.00     1019.00      70.912
      287.00     1518.00     1019.00      69.786
      293.00     1518.00     1021.00      72.037
      299.00     1518.00     1021.50      68.661
      305.00     1518.00     1023.00      66.409
      314.00     1519.00     1021.00      68.661
      322.00     1518.00     1022.00      74.289
      329.00     1520.00     1027.00      65.284
      335.50     1519.50     1024.00      65.284
      346.00     1518.00     1023.00      64.158
      241.00     1837.00      343.00     452.485
      250.00     1837.00      343.00     328.671
      264.00     1837.00      343.00     506.513
      269.00     1845.50      352.50     177.842
      279.00     1837.00      343.00     515.517
      286.00     1837.00      343.00     597.685
      301.00     1837.00      343.00     416.466
      315.00     1837.00      343.00     551.536
      322.50     1837.00      343.00     416.466
      329.00     1837.00      343.00     398.457
      335.00     1837.00      343.00     372.568
      344.00     1837.00      343.00     320.791
      258.00      478.00     1380.00     595.434
      261.00      626.00       74.00     318.540
      271.00      725.00     1502.00     211.610
      279.00      722.00     1500.00     115.935
      274.00      176.00     1828.00     141.824
      282.00      685.00     1943.00     195.852
      305.00      517.00      937.00     112.558
      321.00      520.00      925.00      78.791
      329.00      517.00      941.00     178.968
      335.00      516.00      942.00     200.354
      336.00      520.00      928.00     103.554
      345.00      516.00      944.00     227.368
      345.00      520.00      931.00     118.186
      292.33     1428.33      139.00      88.921
      294.00      862.00      540.00      93.423
      301.00     1696.00     1672.00     176.717
      306.00     1702.00     1667.00     157.582
      313.00      744.00     1430.00     156.456
      306.67      713.33     1495.67     100.177
      316.00     1583.00      689.00     216.112
      313.00      642.00     1437.50      75.414
      309.00      891.00     1989.00     124.940
      314.00      899.00     1990.00     131.693
      322.00      240.00     1328.00      92.298
      313.00     1240.50     1532.00     113.684
      323.00     1216.00     1507.00     218.363
      322.00      639.00       72.00     240.875
      321.00     1228.00     1538.00      69.786
      347.00      309.00      839.00     150.828
      332.00      874.00      134.00     180.093
      341.00      963.00     1504.00     308.410
      346.00      302.00      866.00     110.307
      346.00      898.00     1990.00      81.042
      365.00      301.00      873.00     183.470
      372.00      300.00      876.00     192.475
      378.00      300.00      878.00     181.219
      393.00      303.00      863.00     249.880
      402.00      302.00      867.00     284.773
      424.00      304.00      861.00     361.312
      348.00      368.50      367.00      86.670
      351.00      483.00     1387.00     399.582
      373.00      482.00     1385.00     100.177
      386.67      484.33     1390.33     195.852
      402.00      499.00     1414.00      74.289
      406.00      488.00     1395.00     901.593
      351.00      517.00      944.00     230.745
      356.00      531.00      885.00      66.409
      358.00      516.00      945.00     210.484
      358.00      519.00      933.00     157.582
      366.00      519.00      933.00     181.219
      374.00      528.00      894.00      92.298
      387.00      519.00      937.00     251.005
      387.00      527.00      897.00     117.061
      399.00      518.00      940.00     258.884
      401.00      525.00      904.00     136.196
      409.00      526.00      901.00     157.582
      410.00      517.00      942.00     240.875
      415.00      525.00      905.00     164.335
      417.00      519.00      929.00      65.284
      423.00      524.00      908.00     183.470
      431.00      516.00      945.00     176.717
      437.00      518.50      931.00      79.916
      438.00      516.00      946.00     146.326
      452.00      518.00      934.00      86.670
      452.00      522.00      914.00     343.303
      453.00      515.00      947.00     144.075
      459.00      515.00      947.00     127.191
      459.00      522.00      915.00     374.819
      460.00      517.00      935.00      92.298
      351.00      723.00     1446.00    2169.000
      371.00      723.00     1445.00     626.950
      387.00      725.00     1447.00    1237.017
      406.50      729.00     1449.00    4936.811
      436.00      735.00     1453.00    4670.048
      348.00      787.00      975.00     615.694
      417.00      786.00      984.00      75.414
      427.00      786.00      984.00      58.530
      349.00      836.00      497.00    5429.817
      373.00      842.00      494.00    8163.860
      381.00      853.00      493.00    2223.028
      399.00      856.00      491.00     562.792
      414.00      827.00      500.00     606.690
      417.00      851.00      494.00    1014.151
      435.00      847.00      495.00    5034.737
      452.00      838.00      497.00    6950.481
      351.00     1169.00       65.00     388.326
      348.00     1225.00     1552.00     258.884
      351.00     1204.00     1561.00    1250.524
      368.00     1208.50     1560.00    3926.037
      385.00     1215.00     1557.00    3736.939
      348.00     1213.00     1508.00      93.423
      348.00     1336.00      613.00    3393.636
      348.00     1331.00      553.00     176.717
      351.00     1519.00     1024.00      66.409
      362.00     1520.00     1025.00      67.535
      371.00     1520.00     1025.00      73.163
      379.00     1518.00     1026.00      64.158
      385.00     1518.00     1028.00      64.158
      393.00     1518.00     1025.00      64.158
      405.00     1518.00     1030.00      66.409
      420.00     1518.00     1027.00      65.284
      429.00     1519.00     1028.00      66.409
      438.00     1518.50     1028.00      66.409
      444.00     1518.00     1028.00      69.786
      451.00     1518.00     1029.00      65.284
      461.00     1518.00     1029.00      69.786
      358.00     1653.00     1870.00     310.661
      351.00      732.00     1506.00      68.661
      359.00      721.00     1500.00     115.935
      352.00      931.00      519.00     103.554
      352.00      657.00     1932.00      67.535
      357.00      853.00      539.00      92.298
      358.00     1077.00      549.00    1258.403
      376.00     1082.00      548.00    1513.910
      361.00     1413.00      129.00     298.280
      359.00     1204.00     1513.00     109.182
      359.00     1856.00      369.00     113.684
      364.00     1149.00     1756.00      88.921
      366.00      349.00      388.00     148.577
      387.00     1319.00      601.00    5138.291
      395.00     1323.00      602.00    8145.851
      423.00     1330.00      611.00    2943.402
      442.00     1329.00      610.00     856.569
      459.00     1331.00      611.00    1212.254
      463.00     1307.00      593.00     454.736
      371.00      420.00     1879.50      96.800
      373.00      963.00     1504.00     209.359
      376.00      984.00     1504.00      82.168
      392.00      969.00     1504.00     868.951
      380.00      814.00      519.00     208.233
      387.00      834.00      547.00     429.973
      382.00     1340.00      561.00     103.554
      386.00     1132.00       61.00     443.480
      387.00      923.00     1992.00     336.550
      387.00      728.00     1504.00      87.796
      387.00      824.00      518.00      95.675
      401.00      431.00     1888.00      92.298
      404.00      828.50      516.00      59.656
      405.00      831.00      514.00      59.656
      410.00      840.00      543.00     160.959
      417.00      850.00      543.00      83.293
      435.00     1984.00     1416.00     242.001
      463.00     1977.00     1432.00      86.670
      411.00     1093.00      552.00     114.810
      414.00     1087.00      553.00     109.182
      413.00      839.00      544.00     123.814
      422.00      849.00      544.00     136.196
      421.00     1618.00      165.00      96.800
      431.00     1628.00      169.00     159.833
      428.00      297.00      895.00      61.907
      452.00     1110.00     1991.00     137.321
      452.00     1669.00     1857.00     159.833
      463.00     1670.00     1856.00     121.563
      452.00      925.00     1697.00     109.182
      459.00     1875.00      222.00     167.712
      455.00     1157.00       67.00      90.047
      465.00      515.00      947.00     108.056
      467.00      518.00      936.00      87.796
      467.00      521.00      918.00     363.564
      472.00      515.00      948.00     102.428
      473.00      517.00      937.00      88.921
      485.00      517.00      938.00      81.042
      486.00      517.00      941.00      81.042
      491.00      517.00      941.00      81.042
      501.00      517.00      941.00      81.042
      501.00      520.00      925.00     167.712
      515.00      520.00      928.00     141.824
      530.00      516.00      945.00      56.279
      530.00      520.00      930.00     128.317
      536.00      519.00      932.00     127.191
      544.00      519.00      933.00     108.056
      550.00      519.00      932.00     103.554
      564.00      518.33      933.00      81.042
      469.00     1078.00      549.00    1300.049
      474.00     1147.00       65.00     369.192
      465.00     1309.00      594.00     673.099
      477.00     1326.00      606.00    6134.433
      505.00     1319.00      601.00    5475.966
      464.00     1878.00      226.00     119.312
      465.00     1988.00     1405.00      72.037
      479.00     1976.00     1436.00     610.067
      485.00     1976.00     1435.00     580.801
      501.00     1978.00     1431.00     640.457
      501.00     1987.00     1406.00     405.210
      530.00     1980.00     1437.00      69.786
      538.00     1980.00     1437.00      63.033
      473.00      843.00      546.00     171.089
      473.00      685.00     1643.00     135.070
      480.00     1186.00     1748.00     408.587
      491.00     1175.50     1751.00     140.698
      487.00      887.00        8.00      94.549
      501.00      402.00      181.00     495.257
      508.00      714.00     1659.00     140.698
      523.00      701.00     1652.00     173.340
      509.00     1178.00     1750.00      66.409
      545.00     1463.00     1384.00     511.015
      551.00     1464.00     1382.00     508.764
      544.00      856.00      307.00     563.918
      550.00     1181.00     1982.00     569.545
      567.00     1559.00      650.00     866.700
      564.00      377.00      199.00     634.829
      560.00      651.00     1890.00     491.880
      560.00      624.00      252.00      77.665
      564.00     1202.00     1745.00     447.982
      566.00      868.00      303.00     737.257
      574.00      878.00      304.00     200.354
      579.00     1815.00      728.00      87.796
      575.00      933.00     1943.00     106.930
      580.00      518.00      935.00      65.284
      580.00      868.00      307.00     115.935
      581.00     1110.00      353.00     251.005
      581.00     1153.00     1987.00     262.261
      608.00     1473.00     1371.50    1501.529
      652.00     1488.00     1350.00    1190.868
      681.00     1482.00     1361.00    2795.951
      580.00     1725.00     1399.00     108.056
      587.00     1727.00     1398.00     101.303
      608.00     1729.00     1393.00     121.563
      580.00     1816.00      731.00      92.298
      593.00      917.00     1941.00     110.307
      600.00      384.50      197.50     128.317
      601.00      385.00      195.00     128.317
      617.00      378.00      202.00     521.145
      633.00      361.00      214.00     580.801
      598.00      962.00     1701.00     158.707
      597.00      346.00      225.00      59.656
      617.00     1159.00     1986.00     194.726
      636.00     1169.00     1985.00     767.648
      636.00     1354.00      406.00      96.800
      652.00      427.00     1858.00     103.554
      653.00     1391.00     1924.00      86.670
      651.00     1950.00     1954.00      90.047
      658.00     1955.00     1951.00      92.298
      652.00     1105.00      354.00     184.596
      651.00     1225.00     1336.00      86.670
      657.00     1226.00     1336.00      79.916
      665.00     1715.00     1650.00      73.163
      679.00     1120.00      111.00     165.461
      695.00     1444.00     1638.00     874.016
      681.00      337.00      636.00      87.796
      687.00      337.00      637.00      96.800
      703.00      439.00     1867.00     219.489
      697.00      537.00      977.00      65.284
      704.00      536.00      974.00      66.409
      708.00      536.00      980.00      65.284
      716.00      536.00      975.00      66.409
      716.00      536.00      979.00      66.409
      723.00      537.00      979.00      64.158
      716.00      579.00      683.00    2332.210
      759.00      565.00      702.00    1947.260
      788.00      573.00      692.00    3064.965
      811.00      572.00      695.00    1293.296
      696.00      896.00       69.00     178.968
      697.00     1139.00      111.00     180.093
      702.00     1517.00     1057.00     175.591
      710.00     1518.00     1057.00     177.842
      716.00     1517.00     1057.00     183.470
      716.00     1517.00     1066.00     120.437
      722.00     1517.00     1058.00     194.726
      730.00     1518.00     1057.00     203.731
      737.00     1518.00     1058.00     193.600
      743.00     1518.00     1058.00     199.228
      745.00     1516.00     1058.00     199.228
      751.00     1517.00     1059.00     210.484
      766.00     1518.00     1059.00     232.996
      772.00     1517.00     1059.00     231.870
      781.00     1517.00     1059.00     242.001
      788.00     1517.00     1060.00     242.001
      801.00     1517.00     1061.00     252.131
      810.00     1517.00     1061.00     239.749
      716.00     1829.00      479.00     195.852
      722.00     1842.00      494.00     307.284
      708.00     1363.00      148.00     812.672
      722.00     1382.00      154.00    1115.454
      714.00     1334.00      393.00     229.619
      717.50     1234.00     1331.00     150.828
      717.00     1645.00      210.00     177.842
      731.00      320.00      668.00      74.289
      740.00      320.00      669.00      70.912
      746.00      318.00      672.00      66.409
      727.00     1708.00     1657.00      66.409
      744.00     1712.00     1653.00     149.703
      753.00      951.00     1571.00    3687.413
      760.00      536.00      982.00      61.907
      766.00      535.00      983.00      60.782
      766.00      657.00      131.00      85.544
      772.00      661.00      130.00      85.544
      774.00      976.00     1586.00     168.838
      795.00      608.00      416.00    1508.282
      783.00     1240.00     1327.00     292.652
      779.00     1336.00      137.50      95.675
      801.00     1487.00     1605.00     112.558
      810.00      141.00       59.00     133.944
      812.50       64.50      645.50     417.592
      812.00       72.00      630.00     290.401
      814.00      138.50       61.00     129.442
      817.33      315.33      677.67      99.051
      812.00      323.00      665.00      84.419
      824.00      336.00      405.00     103.554
      817.00      571.00      696.00    1645.604
      823.00      554.00      715.00     247.628
      832.00      569.00      699.00    3058.212
      853.00      560.00      710.00    2514.555
      814.00      807.00      732.00     209.359
      817.00      964.00     1573.00    8739.034
      817.00     1102.00      483.00    3188.779
      817.00     1213.00     1600.00     169.963
      830.00     1217.00     1600.00      87.796
      840.00     1245.00     1324.00     306.159
      839.00     1448.00     1899.00     517.769
      814.00     1466.00     1623.00    1746.906
      832.00     1480.00     1612.00    1590.450
      817.00     1517.50     1060.00     244.252
      824.00     1517.00     1061.00     252.131
      832.00     1517.00     1061.00     255.508
      845.50     1517.00     1061.50     245.377
      853.00     1517.00     1062.00     242.001
      859.00     1516.00     1062.00     253.256
      860.00     1516.00     1074.00      77.665
      866.00     1517.00     1062.00     222.866
      872.00     1517.00     1063.00     235.247
      880.00     1517.00     1063.00     220.614
      888.00     1517.00     1063.00     209.359
      894.00     1516.00     1074.00      67.535
      896.00     1517.00     1063.50     193.600
      901.00     1515.50     1075.00      66.409
      903.00     1516.00     1063.00     177.842
      908.00     1515.67     1075.67      64.158
      911.00     1516.00     1064.00     168.838
      916.50     1515.50     1075.00      64.158
      917.00     1517.00     1065.00     162.084
      923.00     1516.00     1077.50      68.661
      925.00     1516.00     1065.00     168.838
      816.00     1518.00     1046.00      87.796
      823.00     1519.00     1046.00      93.423
      837.00     1518.00     1047.00      82.168
      846.00     1518.00     1047.00      88.921
      857.00     1518.00     1048.00      81.042
      869.00     1518.00     1048.00      84.419
      879.00     1518.00     1048.00      84.419
      901.00     1518.00     1049.00      74.289
      904.00     1518.00     1048.00      74.289
      916.00     1518.00     1050.00      73.163
      817.00     1837.00      489.00     361.312
      816.00      511.00     1257.00      68.661
      825.00      511.00     1257.00      65.284
      837.00      584.00      433.00    1410.357
      861.00      598.00      423.00    1983.279
      904.00      592.00      428.00     696.736
      918.00      588.00      431.00    1951.763
      837.00      636.00      141.00     347.805
      844.00     1823.00      468.00     263.387
      853.00      471.00     1516.00     494.131
      860.00     1252.00     1318.00     284.773
      880.00     1224.00     1597.00     237.498
      883.00      751.00     1271.00     115.935
      889.00      752.00     1271.00     114.810
      897.00      623.00      146.00     488.503
      897.00      743.00     1559.00     141.824
      897.00     1713.00     1716.50      66.409
      895.00     1864.00      224.00      69.786
      909.00      564.00      446.00     163.210
      909.00     1111.00      471.00     104.679
      915.00      730.00     1552.00     124.940
      918.00      327.00      417.00     135.070
      918.00     1561.00      515.00      79.916
      939.00      106.00       94.00     182.345
      933.00      468.00     1818.00     219.489
      981.00      476.00     1824.00     610.067
      928.00      485.00     1534.00     284.773
      932.00      500.00     1549.00     942.114
      948.00      487.00     1535.00     990.514
      981.00      496.00     1544.00     865.574
      999.00      515.00     1563.00     118.186
     1030.00      502.00     1549.00    2167.875
     1043.00      512.00     1560.00     617.946
      988.00      512.00     1258.00     867.825
     1032.00      523.00     1282.00    1410.357
     1039.00      524.00     1283.00    1403.603
     1040.00      518.00     1270.00    2851.104
      928.00      584.00      434.00     418.717
      939.00      573.00      441.00    1995.660
      932.00     1083.00      480.00   16377.246
      951.00     1075.00      481.00    6361.800
      966.00     1074.00      479.00    1930.376
      982.00     1050.00      477.00    3084.100
      987.00     1073.00      478.00    3209.040
     1000.50     1071.00      480.00   16378.372
     1022.00     1056.00      478.00   16381.749
      929.00     1517.00     1065.00     144.075
      932.50     1516.00     1078.00      64.158
      933.00     1517.00     1075.00      64.158
      939.00     1516.00     1066.00     140.698
      939.00     1516.00     1078.00      65.284
      945.00     1516.00     1066.00     139.572
      953.00     1516.00     1078.00      59.656
      954.00     1515.00     1066.00     128.317
      967.00     1516.00     1067.50     105.805
      975.00     1516.00     1066.00     102.428
     1002.00     1516.00     1069.00      77.665
     1017.00     1515.00     1071.00      65.284
     1028.00     1516.00     1071.00      65.284
      932.00     1518.00     1051.00      70.912
      939.00     1518.00     1050.00      67.535
      950.00     1518.00     1051.00      66.409
      959.00     1518.00     1051.00      61.907
      945.50      758.00     1279.00     276.894
      960.00      766.00     1287.00     159.833
      973.00      759.00     1280.00     149.703
      939.00     1996.00     1680.00      81.042
      945.00     1997.00     1680.00      94.549
      951.00     1993.00     1684.00      87.796
      967.00     1989.00     1689.00      56.279
      938.00     1041.00      465.00     150.828
      948.00     1328.00      507.00     196.977
      954.00      254.00     1541.00      78.791
      975.00     1579.00      535.00     520.020
      981.00     1581.00      536.00     459.238
      967.00     1727.50     1701.00     183.470
      978.00     1100.00      470.00     182.345
      969.67     1048.67      466.67      82.168
      981.00      584.00      164.00     576.299
      999.00     1084.00      468.00     408.587
     1011.00     1212.00     1950.00     548.159
     1038.00     1295.00      775.00     276.894
     1046.00      339.00      335.00      86.670
     1047.00      513.00     1561.00    1261.780
     1060.00      767.00     1287.00     375.945
     1077.00      772.00     1292.00     231.870
     1051.00     1235.00     1944.00     581.927
     1068.00     1213.00     1950.00     639.332
     1076.00     1234.00     1944.00     156.456
     1046.00     1270.00     1048.00      68.661
     1052.00     1270.00     1048.00      70.912
     1061.00     1270.00     1047.00      65.284
     1069.00     1270.00     1048.00      69.786
     1044.00     1294.00      774.00     136.196
     1044.00     1567.00      524.00     603.313
     1046.00     1553.00      507.00    1229.138
     1068.00     1567.00      521.00    1646.729
     1098.00     1559.00      514.00     707.992
     1116.00     1535.00      489.00     160.959
     1118.00     1556.00      509.00     294.903
     1147.00     1553.00      506.00    1885.353
     1159.00     1541.00      494.00     889.211
     1044.00     1730.00     1702.00     174.466
     1045.00     1741.00     1688.00     112.558
     1056.00      557.00      716.00      67.535
     1086.00     1298.00      488.00     204.856
     1087.00     1369.00     1475.00     100.177
     1083.00     2016.00     1414.00      61.907
     1085.00      993.00     1948.00     109.182
     1096.00      539.00      963.00      61.907
     1104.00      969.00     1948.00      99.051
     1118.00      840.00      105.00     675.350
     1122.00     1262.00     1937.00      82.168
     1138.00     1343.00      111.00     281.396
     1140.00     1799.00      514.00      84.419
     1135.50      571.50      108.50     173.340
     1154.00     1084.00      109.00     115.935
     1160.00      531.00     1296.00    2041.809
     1167.00      685.00      578.00     137.321
     1166.00     1003.00     1704.00     121.563
     1176.00     1529.00      772.00    1480.143
     1190.00     1536.00      787.00    3067.216
     1225.00     1521.00      757.00     254.382
     1240.00     1531.00      775.00    1305.677
     1247.00     1530.00      774.00    1220.133
     1275.00     1529.00      770.00    2945.653
     1167.00     1753.00     1456.00     122.689
     1161.50     1813.00      535.50     112.558
     1166.00     1813.00      534.00     112.558
     1167.00      279.00     1288.00      66.409
     1204.00      281.00     1293.00     163.210
     1180.00       58.00      370.00     109.182
     1170.00     1238.00     1700.00     149.703
     1188.00      307.00      371.00     210.484
     1197.00      323.00      354.00     244.252
     1177.00     1061.00      348.00      83.293
     1182.00      304.00      588.00      63.033
     1181.00      773.00     1961.00      74.289
     1197.00     1511.00     1464.00     562.792
     1184.00       71.00      349.00      93.423
     1188.00       72.00      347.00      93.423
     1194.00     1017.00     1948.00     115.935
     1200.00      858.00     1489.00      67.535
     1204.00      537.00      979.00      57.405
     1206.00      537.00      977.00      57.405
     1217.00      537.00      977.00      69.786
     1223.00      536.00      978.00      64.158
     1226.00      547.00      582.00     311.787
     1232.00      549.00      580.00     296.029
     1217.00      997.00     1705.00     139.572
     1234.00      772.00     1721.00     315.164
     1232.00      537.00      978.00      66.409
     1240.00      537.00      977.00      63.033
     1251.00      537.00      977.00      69.786
     1234.00     1262.00     1691.00     141.824
     1237.33     1302.33      339.67     157.582
     1240.00     1051.00      351.00     147.451
     1254.33     1774.67     1415.33     141.824
     1254.00     1785.00      493.00     127.191
     1254.00      755.00     1716.00     343.303
     1262.00      273.00     1759.00     504.262
     1260.00     1273.00     1687.00     184.596
     1262.00     1304.00      102.00     283.647
     1266.00      794.00      114.00    1015.277
     1275.00     1027.00     1998.00     114.810
     1275.00     1276.00     1480.00     149.703
     1275.00       37.00      399.00     104.679
     1281.00       38.00      397.00     127.191
     1288.00      787.00      567.00    2633.866
     1276.00     1031.00     1997.00     114.810
     1295.00     1271.00     1483.00    3514.073
     1276.00     1507.00     1470.00     489.629
     1276.00     1520.00     1454.00     292.652
     1339.00     1521.00     1453.00     678.727
     1358.00     1531.50     1440.00      60.782
     1276.00     1760.00     1936.00     101.303
     1288.00     1786.00     1268.00     173.340
     1297.00     1783.00     1270.00     155.331
     1283.00     2029.00     1238.00     148.577
     1307.00     2032.00     1227.00      86.670
     1276.00     2033.00     1211.00     142.949
     1282.00     2034.00     1214.00     144.075
     1291.00     2033.00     1217.00     144.075
     1297.00     2032.00     1220.00     138.447
     1305.00     2031.00     1222.00     133.944
     1320.00     2031.00     1229.50     102.428
     1340.00     2029.00     1240.00      56.279
     1340.00     2036.00     1203.00     207.107
     1293.67     1056.33      351.00     145.200
     1309.00      780.00     1724.00      97.926
     1312.00      780.00     1724.50      97.926
     1325.00      778.00     1723.00     382.699
     1308.00     1032.50     1704.50     136.196
     1312.00     1042.00      349.00      64.158
     1319.00      794.00      362.00     270.140
     1310.00     1530.00     1944.00      69.786
     1343.00     1275.00     1480.00    3144.882
     1357.00     1266.00     1486.00    4063.358
     1367.00     1279.50     1478.00    1675.995
     1385.00     1283.00     1475.00     639.332
     1339.00     1041.00     1998.00     287.024
     1342.00      779.00      520.00      74.289
     1340.00      792.00     1524.00      81.042
     1361.00      774.00     1527.00     187.973
     1363.00      767.00     1510.00     217.238
     1344.00     1299.00      341.00     404.085
     1349.00      782.00       79.00     149.703
     1362.00     1277.00      333.00     169.963
     1368.00     1032.00     1508.00     751.890
     1367.00      796.50     2030.50      59.656
     1376.00     1787.00      304.00     159.833
     1378.00     1789.50      304.50     159.833
     1376.00      282.00      128.00      82.168
     1376.00     1040.00     1998.00     298.280
     1394.00      529.00      109.00      77.665
     1392.00      535.00      598.00     350.057
     1392.00      549.00      583.00     150.828
     1434.00      530.00      603.00     372.568
     1447.00      532.00      602.00    1017.528
     1392.00      536.00      988.00     122.689
     1398.00      537.00      987.00     126.065
     1405.00      536.00      988.00     122.689
     1413.00      536.00      988.00     121.563
     1419.00      535.00      990.00     122.689
     1427.00      535.00      990.00     121.563
     1433.00      535.00      992.00     132.819
     1441.00      535.00      996.00     136.196
     1447.00      536.00      993.00     141.824
     1455.00      535.00      995.00     150.828
     1462.00      535.00      994.00     145.200
     1469.00      535.00      994.00     162.084
     1476.00      535.00      994.00     167.712
     1483.00      535.00      994.00     178.968
     1498.00      535.00      994.00     203.731
     1504.00      535.00      994.00     212.735
     1411.00      780.00      574.00    4192.800
     1423.00      788.00      571.00    4934.560
     1438.00      776.00      575.00    2324.331
     1452.00      771.00      577.00    1381.092
     1491.00      774.00      576.00    6882.946
     1392.00     1276.00     1478.00     363.564
     1406.00     1282.00     1476.00     933.109
     1426.00     1281.00     1477.00    3980.065
     1453.00     1287.00     1473.00    4829.881
     1397.00     1253.00     1465.00      84.419
     1392.00     1781.00      788.00     131.693
     1398.00     1785.00     1267.00     399.582
     1399.00     1275.00      328.00     122.689
     1413.00     1277.00      330.00     509.890
     1419.00      773.00       85.00     243.126
     1420.00      768.00     1512.00     366.940
     1425.00     1258.00     1461.00     169.963
     1429.00     1779.00      298.00     454.736
     1431.00      784.00     1484.00      83.293
     1448.00     1768.00      748.00      93.423
     1452.00     1767.00      747.00      93.423
     1447.00     1015.00       58.00     339.926
     1454.00      768.00      527.00     231.870
     1448.00     1264.00      570.00      66.409
     1456.00     1020.00      548.00     819.425
     1460.00      278.00      637.00     178.968
     1464.50      784.00     1535.00    3798.846
     1482.00      801.00     1543.00    1606.208
     1505.00      799.00     1541.00     517.769
     1470.00      782.00      521.00      84.419
     1473.00     1042.00     1507.00     209.359
     1489.00     1041.00     1507.00     683.229
     1468.00      795.00     1488.00      68.661
     1476.00      786.50       82.00     316.289
     1481.00      581.00     1956.00      65.284
     1482.00      587.00     1960.00      64.158
     1480.00      774.00     1514.00      90.047
     1483.00     1011.00       57.00     352.308
     1492.00      761.00       87.00     110.307
     1487.50     1172.00      532.00      74.289
     1497.00      747.00     1515.00     194.726
     1497.00     1271.00      574.00      97.926
     1497.00      798.00     1489.00     126.065
     1497.00     1293.00     1523.00      82.168
     1512.00      265.00      141.00     121.563
     1517.00      296.00     1598.00     150.828
     1518.00      536.00      992.00     240.875
     1525.00      535.00      992.00     251.005
     1534.00      535.00      992.00     283.647
     1543.00      536.00      992.00     291.526
     1554.00      535.00      992.00     328.671
     1562.00      535.00      993.00     310.661
     1570.00      535.00      991.00     306.159
     1585.00      536.00      992.00     285.898
     1613.00      536.00      991.00     192.475
     1521.00      767.00      580.00    6404.573
     1508.00     1011.00      545.00     212.735
     1511.00     1262.00      517.00    4070.112
     1509.00     1778.00     1291.00     249.880
     1517.00     1782.00     1279.00     339.926
     1584.00     1787.00     1264.00     598.811
     1527.00     1013.00      546.00     327.545
     1543.00     1014.00      546.00    1229.138
     1525.00      511.00      116.00     133.944
     1529.00      771.00     1513.00      64.158
     1534.00     1253.00      562.00     100.177
     1534.00     1275.50       30.50      74.289
     1535.00     1296.00      550.00      74.289
     1554.00       61.00     2042.00      65.284
     1554.00      497.00      125.00     117.061
     1562.00     1258.00      565.00     182.345
     1575.00       19.00      830.00      70.912
     1582.00       18.00      828.00      65.284
     1583.00       19.00      831.00      65.284
     1584.00       20.00      827.00      65.284
     1569.00     1226.00      140.00      65.284
     1576.00      808.00     1906.00     126.065
     1576.00     1160.00      528.00      69.786
     1627.00      536.00      992.00     150.828
     1642.00      536.00      992.00     111.433
     1663.00      536.00      992.00      65.284
     1629.00     1105.00     1816.00     189.098
     1636.00     1749.00      445.00     150.828
     1649.00     1787.00     1261.00     532.401
     1649.00      749.00      687.00     282.522
     1640.50     1422.00      754.50      59.656
     1663.00     1300.00     1368.00     361.312
     1671.00     1340.00     1764.00     374.819
     1674.00      223.00      393.50      65.284
     1691.00      269.00      786.00     362.438
     1681.00      493.00      270.00      88.921
     1685.00     1567.00     1724.00     137.321
     1692.00     1562.00     1728.00     154.205
     1684.00     1743.00      434.00      84.419
     1696.00      989.00      633.00     290.401
     1697.00      709.00      290.00     247.628
     1695.00     1098.00     1817.00     452.485
     1700.00      512.50      738.00      94.549
     1720.00       20.00      842.00     145.200
     1727.00       19.00      843.00     132.819
     1707.00      857.00     1872.00      86.670
     1718.00      946.00      236.00     324.168
     1714.00     1323.00     1771.00     420.968
     1727.00     1319.00     1773.00     516.643
     1712.00      241.00      316.00     117.061
     1713.00      613.00     1929.00     137.321
     1715.00     1293.00     1374.00     409.713
     1722.00     1291.00     1376.00     428.847
     1721.00     1827.00     1662.00     162.084
     1726.00      751.00      689.00     451.359
     1737.00      593.00     1920.00     131.693
     1742.00     1225.50      577.00     449.108
     1740.00     1303.00     1366.00     214.987
     1746.00     1222.00      141.00     172.214
     1749.00     1076.00     1819.00     705.741
     1769.00      299.00     1170.00     195.852
     1757.00      224.00      397.00     118.186
     1757.00      473.00      343.00     131.693
     1761.00      992.00      636.00     529.024
     1760.00      832.00     1868.00     117.061
     1763.00     1101.00     1817.00     253.256
     1772.00      276.00      767.00     350.057
     1799.00      271.00      777.00     446.857
     1828.00      264.00      794.00     108.056
     1854.00      265.00      795.00     127.191
     1767.00      713.00      292.00     490.755
     1761.00     1302.00     1366.00      72.037
     1761.00     1346.00     1761.00      65.284
     1763.00     1341.00     1762.00      65.284
     1772.00      519.00      727.00     138.447
     1771.00     1050.50     1421.00     490.755
     1778.00     1470.00       95.00     280.270
     1779.00      760.00      682.00     613.443
     1774.00      616.00     1929.00      64.158
     1778.00     1303.00     1366.00     101.303
     1785.00     1303.00     1366.00     117.061
     1801.00     1301.00     1367.00     480.624
     1783.00     1106.00     1817.00      79.916
     1784.00      752.00      621.00      91.172
     1804.00     1230.00      582.00    1022.030
     1797.00     1999.00       26.00      81.042
     1795.00      536.00     1008.00      59.656
     1812.00      536.00     1009.00      73.163
     1814.00      536.00     1004.00      73.163
     1821.00      535.00     1004.00      79.916
     1828.00      536.00     1008.00      87.796
     1835.00      535.00     1007.00      97.926
     1850.00      535.00     1006.00     104.679
     1815.50     1004.00      636.00     605.564
     1828.00     1336.00     1766.00     620.197
     1834.00     1439.00      127.00     140.698
     1841.00      466.00      344.00      73.163
     1841.00      709.00      293.00     222.866
     1850.00     1710.00      461.00     211.610
     1841.00     1093.00     1818.00     727.127
     1841.00      606.00     1927.00     181.219
     1843.00      751.00      688.00     156.456
     1855.00      751.00      687.00     201.480
     1855.00     1245.00      590.00    1068.179
     1855.00      512.00      736.00      86.670
     1855.00       17.00      854.00      72.037
     1855.00       18.00      842.00      70.912
     1855.00       21.00      825.00      67.535
     1854.00      578.00     1525.00     106.930
     1854.00      862.00      486.00      69.786
     1859.00      513.00      735.00     176.717
     1857.00      517.00     1108.00     311.787
     1863.00      517.00     1108.00     306.159
     1893.00      515.00     1103.00     106.930
     1907.00      518.00     1112.00      66.409
     1920.00      522.00     1141.00      58.530
     1921.00      523.00     1151.00      56.279
     1926.00      519.00     1129.00      60.782
     1934.00      528.00     1163.00      67.535
     1935.00      516.00     1111.00     101.303
     1939.00      530.00     1171.00      57.405
     1942.00      517.00     1113.00      97.926
     1955.00      516.00     1111.00      81.042
     1961.00      515.00     1110.00      74.289
     1971.00      521.00     1135.00     236.373
     1857.00      535.00     1005.00     111.433
     1865.00      536.00     1006.00     121.563
     1876.00      535.00     1007.00     122.689
     1886.67      535.00     1007.00     113.684
     1893.00      535.00     1007.00     111.433
     1900.00      535.00     1007.00     117.061
     1907.00      535.00     1007.00     112.558
     1913.00      535.00     1007.00     105.805
     1920.50      535.00     1008.00     103.554
     1928.00      535.00     1012.00     102.428
     1935.00      535.00     1008.00      95.675
     1944.00      534.00     1010.00      96.800
     1950.00      534.00     1010.00     100.177
     1956.00      534.00     1011.00      91.172
     1961.00      535.00     1010.00      91.172
     1969.00      535.00     1007.00      84.419
     1856.00      543.00     1122.00     917.351
     1886.00      545.00     1130.00    6070.274
     1893.00      548.00     1142.00    6756.880
     1928.00      546.00     1132.00   11106.137
     1865.00      754.00      685.00     952.244
     1859.00     1175.00     1571.00      73.163
     1859.00     1221.00      190.00     108.056
     1864.00     1059.00     1419.00     575.173
     1877.00     1836.00     1710.00     141.824
     1879.00      642.00     1984.00     166.586
     1885.00      885.00     1922.00     101.303
     1885.00      888.00     1922.00     101.303
     1886.00     1467.00      141.00     145.200
     1897.00      473.00      339.00     207.107
     1895.00     1434.00      125.00      65.284
     1897.00     1440.00      126.00      65.284
     1907.00      512.00      736.00     157.582
     1906.00      608.00     1969.00     156.456
     1907.00      596.00     1975.00     402.959
     1915.00      855.00     1917.00      94.549
     1958.00       17.00      852.00     252.131
     1961.00       16.00      855.00     252.131
     1930.00      960.00      237.00    1092.942
     1949.00     1715.00      468.00     378.196
     1949.00     1731.00      492.00     783.406
     1942.00     1204.00      184.00     201.480
     1941.00     1394.00       62.00      65.284
     1962.00     1448.00      129.00     234.121
     1969.00     1175.00     1987.00      79.916
     1972.00       15.00      857.00     117.061
     1978.00      521.00     1133.00     332.047
     1986.00      521.00     1132.00     368.066
     1992.00      520.00     1132.00     366.940
     2022.00      518.00     1118.00     142.949
     2036.00      518.00     1117.00     108.056
     2048.00      518.00     1118.00      88.921
     1972.00      534.00     1010.00      78.791
     1978.00      535.00     1010.00      84.419
     1985.00      534.00     1013.00      82.168
     1991.00      535.00     1011.00      81.042
     2006.00      535.00     1013.00      78.791
     2014.00      534.00     1013.00      74.289
     2022.00      535.00     1015.00      72.037
     2030.00      534.00     1014.00      69.786
     2036.00      535.00     1014.00      66.409
     2040.00      535.00     1014.00      66.409
     2040.00      535.00     1017.00      66.409
     2050.00      534.50     1016.00      63.033
     2057.00      534.00     1017.00      65.284
     2063.00      534.00     1017.00      63.033
     2072.00      534.00     1017.00      60.782
     1972.00      544.00     1123.00     365.815
     2000.00      536.00     1081.00      84.419
     2012.00      535.00     1071.00      61.907
     2022.00      538.00     1094.00      87.796
     2028.00      537.00     1080.00      66.409
     2029.00      535.00     1071.00      61.907
     2034.00      538.00     1090.00      73.163
     2043.00      536.00     1077.50      61.907
     2049.00      536.00     1071.00      56.279
     2049.00      538.00     1084.00      68.661
     2050.00      536.00     1078.00      57.405
     1986.00      788.00     1081.00    3395.887
     1985.00      860.00     1564.00     864.448
     1972.00     1577.00     1375.00     184.596
     2007.00     1815.00     1326.00     131.693
     2012.00      338.00     1653.00     112.558
     2044.00      853.00     1563.00    3642.390
     2075.00      831.00     1555.00    3428.529
     2030.00     1443.00       85.00     173.340
     2028.50     1645.00     1870.00      74.289
     2035.00     1401.00     1929.00     230.745
     2038.00      464.00      295.00      77.665
     2037.00      809.67     1546.67      74.289
     2040.50     1195.00      139.00     148.577
     2050.00      953.00      551.00     409.713
     2044.00      347.00     1662.00     164.335
     2051.00     1171.00      132.00      58.530
     2056.00     1442.00       87.00     225.117
     2063.00     1321.00     1506.00     205.982
     2072.00     1324.00     1506.00      97.926
     2064.00     1415.00       72.00      91.172
     2075.00     1361.00     1945.00     214.987
     2087.00     1126.00     1993.00     420.968
     2088.00       12.00      872.00      72.037
     2099.00      798.00     1542.00     198.103
     2108.00      813.00     1548.00      87.796
     2089.00     1197.00      538.00     109.182
     2108.00     1267.00      972.00    2266.926
     2088.00     1372.00     1941.00     310.661
     2093.00     1507.00      927.00    2430.136
     2101.00     1508.00      930.00    2597.848
     2108.00     1509.00      932.00    2624.862
     2115.00     1504.00      912.00    5581.771
     2115.00     1510.00      934.00    2351.345
     2123.00     1505.00      915.00    5704.459
     2136.00     1507.00      924.00    4551.862
     2144.00     1506.00      917.00    4616.020
     2144.00     1508.00      926.00    4607.015
     2164.00     1508.00      918.00    7400.714
     2164.00     1512.00      946.00     603.313
     2170.00     1508.00      920.00    7807.050
     2186.00     1508.00      928.00    6839.048
     2193.00     1509.00      930.00    6330.284
     2091.00     1535.00      941.00      67.535
     2102.00     1535.00      943.00      88.921
     2113.00     1535.00      944.00     104.679
     2129.00     1535.00      946.00     141.824
     2145.00     1536.00      950.00     200.354
     2156.00     1536.00      937.00     147.451
     2156.00     1537.00      952.00     211.610
     2186.00     1537.00      942.00     213.861
     2199.00     1537.00      944.00     237.498
     2102.00     1559.00     1405.00     944.365
     2140.00     1568.00     1393.00     357.936
     2157.00     1565.00     1396.00     108.056
     2176.00     1567.00     1394.00     162.084
     2193.00     1546.00     1420.00      69.786
     2195.00     1562.00     1400.00     706.867
     2111.00     1201.00      494.00    3122.370
     2144.00     1224.00      501.00    3247.310
     2165.00     1218.00      500.00    5267.733
     2177.00     1209.00      494.00    1995.660
     2193.00     1206.00      493.00     836.309
     2102.00      739.00      627.00     146.326
     2096.00      533.00     1058.00      61.907
     2107.00      534.00     1053.00      66.409
     2113.00      534.00     1053.00      61.907
     2115.00      533.00     1055.00      61.907
     2123.00      533.00     1053.00      63.033
     2130.00      534.00     1053.00      72.037
     2136.00      534.00     1053.00      65.284
     2142.00      533.00     1051.00      65.284
     2145.00      534.00     1053.00      65.284
     2151.00      533.00     1052.00      73.163
     2157.00      534.00     1052.00      76.540
     2164.00      533.00     1052.00      81.042
     2170.00      533.00     1052.00      72.037
     2183.00      533.00     1050.00      74.289
     2190.00      534.00     1052.00      81.042
     2200.00      534.00     1052.00      82.168
     2108.00     1240.00      505.00     119.312
     2108.00     1243.00      507.00     119.312
     2099.00      535.00     1022.00      64.158
     2109.00     1388.00     1933.00     111.433
     2115.00      962.00      553.00     861.072
     2126.00     1191.00      137.00     172.214
     2133.00     1436.00       81.00     270.140
     2137.00     1687.00      375.00     111.433
     2137.00      731.00      549.00     263.387
     2139.00     1145.00     1989.00      72.037
     2141.00     1139.00     1990.00      69.786
     2158.00       94.00     1476.00      88.921
     2164.00       90.00     1471.00      90.047
     2171.00       91.00     1469.00      79.916
     2202.00       84.00     1454.00     347.805
     2151.00     1330.00     1501.00      91.172
     2150.00      206.00      356.00     121.563
     2148.00     1139.00      523.00      74.289
     2151.00      981.00      550.00     846.439
     2168.00      977.00      552.00    1085.063
     2152.00      652.00      126.00     246.503
     2150.00     1084.00     1504.00     103.554
     2150.00     1253.00      528.00      70.912
     2152.00      842.00     1509.00     114.810
     2150.00     1206.00      544.00      69.786
     2161.00      534.00     1024.00      65.284
     2177.00      741.00      598.00    5133.788
     2186.00      736.00      602.00    7004.509
     2172.00     1807.50     1346.50     174.466
     2170.00      749.00      622.00     231.870
     2183.00      483.00      668.00     711.369
     2173.00      720.00      553.00     144.075
     2180.00      355.00     1835.00     359.061
     2179.00     1222.00      551.00     282.522
     2176.00      534.00     1025.00      60.782
     2182.50      802.50     1528.50     265.638
     2180.00      821.00     1502.00      77.665
     2187.00      970.00      549.00     536.904
     2188.00      650.00      610.00      81.042
     2193.00      643.00      616.00      85.544
     2186.00      213.00      349.00     104.679
     2194.00     1694.00      379.00      70.912
     2195.00     1697.00      381.00      70.912
     2192.00     1608.00     1895.00      91.172
     2195.00      926.00       65.00     422.094
     2194.00     1708.00      396.00     145.200
     2223.00       65.00     1410.00     292.652
     2229.00       64.00     1407.00     312.912
     2276.00       65.00     1405.00      68.661
     2276.00       72.00     1423.00     330.922
     2206.00       83.00     1452.00     396.206
     2251.00       75.00     1433.00     248.754
     2279.00       73.00     1428.00     694.485
     2299.00       61.00     1397.00     428.847
     2301.00       69.00     1419.00     648.336
     2205.00      162.00      244.00      81.042
     2209.00      369.00     1846.00     500.885
     2204.00      480.67      670.00      59.656
     2228.00      494.00      652.00     969.128
     2271.00      487.00      659.00     505.387
     2295.00      485.00      663.00     123.814
     2309.00      487.00      658.00     256.633
     2319.00      494.00      649.00     620.197
     2207.00      533.50     1052.00      79.916
     2215.00      533.00     1050.00      85.544
     2222.00      533.00     1052.00      91.172
     2228.00      534.00     1051.00      88.921
     2235.00      533.00     1050.50      90.047
     2243.00      534.00     1053.00      91.172
     2251.00      534.00     1052.00      99.051
     2258.00      535.00     1050.00      94.549
     2265.00      535.00     1050.00     100.177
     2286.00      533.00     1051.00     103.554
     2293.00      533.00     1051.00     109.182
     2299.00      534.00     1050.00     109.182
     2307.00      534.00     1050.00     117.061
     2317.00      534.00     1051.00     109.182
     2205.00      682.00      116.00     347.805
     2215.00      728.00      604.00    3291.207
     2230.00      734.00      599.00     754.141
     2235.00      727.00      607.00     790.160
     2250.00      730.00      603.00    1684.999
     2269.00      734.00      601.00    7541.412
     2296.00      741.00      597.00    6059.018
     2204.00      835.50     1507.00     109.182
     2207.00     1072.00     1506.00     844.188
     2207.00     1230.00      505.00     445.731
     2210.00     1210.00      494.00    1415.985
     2228.00     1215.00      496.00    6920.090
     2245.00     1222.00      500.00    5031.360
     2205.00     1219.00      550.00     105.805
     2206.00     1268.00      987.00     103.554
     2215.00     1268.00      988.00      94.549
     2222.00     1269.00      989.00      76.540
     2237.00     1268.00      990.00      66.409
     2204.00     1321.00     1451.00     823.927
     2228.00     1313.00     1457.00    3903.525
     2206.00     1509.00      932.00    3865.255
     2206.00     1514.00      955.00     247.628
     2221.00     1513.00      958.00     204.856
     2258.00     1511.00      943.00     590.932
     2287.00     1513.00      950.00     314.038
     2293.00     1513.00      950.00     296.029
     2300.00     1513.00      952.00     262.261
     2316.00     1513.00      953.00     203.731
     2206.00     1538.00      947.00     227.368
     2215.00     1529.00      912.00     156.456
     2222.00     1530.00      912.00     164.335
     2228.00     1530.00      917.00     174.466
     2235.00     1532.00      920.00     191.349
     2236.00     1534.00      938.00      68.661
     2243.00     1535.00      939.00      73.163
     2251.00     1535.00      940.00      79.916
     2251.00     1538.00      954.00     124.940
     2252.00     1532.00      923.00     273.517
     2257.00     1538.00      957.00     123.814
     2258.00     1532.00      923.00     301.656
     2263.00     1536.00      942.00      85.544
     2265.00     1533.00      925.00     310.661
     2265.00     1538.00      957.00     113.684
     2272.00     1533.50      926.00     302.782
     2272.00     1535.00      944.00      81.042
     2281.00     1537.00      944.00      88.921
     2287.00     1534.00      928.00     249.880
     2294.00     1537.00      949.00      68.661
     2300.00     1537.00      948.00      70.912
     2302.00     1534.00      930.00     180.093
     2308.00     1536.00      932.00     158.707
     2314.00     1535.00      934.00     141.824
     2314.00     1537.00      948.00      61.907
     2206.00     1750.00      866.00     236.373
     2206.00     1753.00      878.00     232.996
     2206.00     1757.00      899.00      86.670
     2215.00     1751.00      865.00     271.266
     2229.00     1752.00      869.00     365.815
     2235.00     1752.00      871.00     370.317
     2252.00     1753.00      883.00     346.680
     2259.00     1753.00      884.00     330.922
     2215.00      910.00       62.00     192.475
     2215.00     1211.00      543.50     165.461
     2210.00      764.00      611.00      74.289
     2214.00      442.00      160.00      90.047
     2223.00      434.00      167.00     130.568
     2218.00      880.00     1752.00     288.149
     2215.00      741.00      544.00      79.916
     2227.00      726.00      551.00     139.572
     2245.00     1704.00      388.00     205.982
     2244.00      929.00     1990.00     124.940
     2245.00      375.00     1851.00     138.447
     2263.00      367.00     1845.00     435.601
     2277.00      350.00     1830.00     468.243
     2251.00      189.00      215.00     164.335
     2245.00      754.00      616.00      87.796
     2252.00      848.00     1745.00     370.317
     2253.00      734.00      547.00     106.930
     2258.00      918.00      357.00      63.033
     2262.00      665.00      118.00      90.047
     2260.00     1165.00        7.00      81.042
     2266.00     1218.00      546.00     196.977
     2280.00     1846.00     1548.00     200.354
     2274.00      860.00     1748.00     440.103
     2285.00      868.00     1749.00     141.824
     2281.00     1089.00     1702.00     153.079
     2283.00     1226.00      551.00     126.065
     2300.00      333.00     1410.00      81.042
     2299.00     1100.50     1701.50     154.205
     2323.00      493.00      651.00    1141.342
     2345.00      505.00      636.00      81.042
     2331.00      534.00     1051.00     121.563
     2346.00      534.00     1051.00     132.819
     2358.00      535.00     1051.00     132.819
     2365.00      534.00     1052.00     131.693
     2379.00      534.00     1052.00     136.196
     2388.00      535.00     1052.00     145.200
     2400.00      534.50     1052.25     142.949
     2408.00      534.00     1052.00     153.079
     2414.00      534.00     1053.00     155.331
     2421.00      534.00     1053.00     158.707
     2430.00      535.00     1052.00     155.331
     2322.00      533.50     1030.00      68.661
     2335.00      535.00     1034.00      70.912
     2342.00      534.00     1032.00      73.163
     2352.00      534.00     1032.00      69.786
     2358.00      534.00     1034.00      74.289
     2366.00      535.00     1034.00      72.037
     2374.00      535.00     1034.00      75.414
     2392.00      535.00     1035.00      77.665
     2402.00      535.00     1036.00      75.414
     2409.00      535.00     1036.00      79.916
     2422.00      534.00     1034.00      83.293
     2428.00      535.00     1034.00      86.670
     2344.00      583.00     1377.00     424.345
     2408.00      576.00     1366.00    1826.823
     2434.00      562.00     1348.00     901.593
     2321.00      865.00     1748.00      86.670
     2338.00      858.50     1747.00     335.424
     2323.00      934.00      357.00     136.196
     2320.00     1512.00      954.00     187.973
     2323.00     1513.00      955.00     187.973
     2324.00     1515.00      972.00      86.670
     2330.00     1513.00      956.00     167.712
     2335.00     1516.00      974.00      82.168
     2337.00     1513.00      957.00     167.712
     2343.00     1515.00      975.00      87.796
     2344.00     1513.00      959.00     149.703
     2350.00     1513.00      959.00     148.577
     2351.00     1516.00      976.00      83.293
     2359.00     1513.00      961.00     127.191
     2359.00     1516.00      976.00      78.791
     2366.00     1514.00      960.00     123.814
     2366.00     1517.00      977.00      78.791
     2374.00     1513.00      962.00     127.191
     2374.00     1516.00      978.00      78.791
     2388.00     1516.00      980.00      72.037
     2396.00     1516.00      980.00      72.037
     2400.00     1513.00      964.00      94.549
     2405.00     1516.00      981.00      68.661
     2407.00     1515.00      966.00      94.549
     2415.00     1513.50      967.50      83.293
     2421.00     1516.00      983.00      66.409
     2422.00     1515.00      967.00      87.796
     2428.00     1516.00      967.00      79.916
     2432.00     1516.00      983.00      59.656
     2320.00     1535.00      935.00     133.944
     2330.00     1536.00      937.00     123.814
     2337.00     1536.00      939.00     113.684
     2343.00     1537.00      939.00     112.558
     2359.00     1536.00      942.00      92.298
     2373.00     1536.00      943.00      82.168
     2380.00     1536.00      943.00      73.163
     2331.00     1698.00      221.00     285.898
     2321.00     1834.00     1569.00     243.126
     2323.00     1824.00     1582.00     159.833
     2338.00     1206.00      311.00     328.671
     2354.00     1391.00     1894.00     503.136
     2356.00      694.00      407.00     187.973
     2358.00      842.00     1744.00     463.741
     2358.00      965.00      353.00     153.079
     2372.00      195.00      206.00     114.810
     2384.00      926.50     1508.00      75.414
     2389.00     1352.00     1911.00     641.583
     2402.00     1370.00     1903.00     784.532
     2389.00      723.00      393.00     166.586
     2402.00      712.00      399.00     201.480
     2389.00     1187.00      305.00      82.168
     2391.00      946.00      353.00     100.177
     2408.00     1958.00      577.00      86.670
     2421.00     1959.00      584.00      91.172
     2431.00     1961.00      588.00      83.293
     2409.00      193.00      523.00      74.289
     2416.00      190.00      527.00      79.916
     2414.00      312.00     1368.00      88.921
     2437.00      534.00     1052.00     156.456
     2443.00      534.00     1053.00     163.210
     2451.00      534.00     1053.00     168.838
     2458.00      534.00     1053.00     165.461
     2467.00      534.00     1054.00     183.470
     2480.00      535.00     1053.00     186.847
     2487.00      534.00     1053.00     185.721
     2493.00      534.00     1053.00     201.480
     2499.00      535.00     1053.50     193.600
     2509.00      534.50     1053.00     199.228
     2517.00      535.00     1055.00     202.605
     2524.00      535.00     1053.00     208.233
     2530.00      534.00     1054.00     212.735
     2544.00      535.00     1054.50     220.614
     2437.00      534.50     1034.00      78.791
     2444.00      535.00     1036.50      88.921
     2450.00      535.00     1036.00      85.544
     2458.00      535.00     1036.00      84.419
     2464.00      533.00     1035.00      78.791
     2480.00      535.00     1037.00      90.047
     2487.00      534.00     1036.00      90.047
     2493.00      535.00     1038.00      91.172
     2503.00      535.00     1038.00      96.800
     2509.00      535.00     1037.00      94.549
     2516.25      535.00     1038.50      91.172
     2523.00      535.00     1038.00      95.675
     2529.00      535.00     1039.00     102.428
     2545.00      535.00     1039.00     101.303
     2443.00     1468.00      677.00     568.420
     2450.00     1469.00      678.00     530.150
     2509.00     1477.00      689.00    1779.548
     2549.00     1482.00      694.00     160.959
     2549.00     1490.00      708.00    1015.277
     2449.00     1815.00     1595.00     211.610
     2445.00      957.00      352.00     266.763
     2443.00     1212.00      312.00     631.453
     2445.00     1432.00     1418.00     101.303
     2442.00     1616.00     1864.00      88.921
     2444.00     1372.00     1904.00     112.558
     2445.00      397.00      218.00      70.912
     2458.50      252.50      691.50     178.968
     2456.00     1116.00     1944.00     106.930
     2467.00      663.00      160.00     722.625
     2479.00      111.00     1965.00     196.977
     2487.00      602.00     1634.00    1088.440
     2476.00      609.00      649.00      74.289
     2480.00     1720.00      645.00      91.172
     2487.00     1720.00      645.00      76.540
     2508.00      229.00      469.00     213.861
     2515.00      219.00      486.00     240.875
     2500.00      703.00      144.00     765.397
     2516.00      683.00      153.00     823.927
     2502.00     1230.00      720.00      88.921
     2502.00     1339.00     1914.00     712.495
     2523.00     1986.00      646.00     249.880
     2530.00     1987.00      648.00     260.010
     2539.00     1988.00      651.00     236.373
     2547.00     1981.00      633.00      79.916
     2510.00      418.00      203.00     207.107
     2515.00      815.00     1329.00     186.847
     2522.00     1436.00      411.00     360.187
     2509.00      536.00     1071.00      63.033
     2517.00      536.00     1071.00      65.284
     2524.00      536.00     1072.00      60.782
     2539.00      334.00     1646.00     126.065
     2547.00     1095.00     1572.00    2245.540
     2535.00      471.00      436.00      73.163
     2538.50      681.00      150.00     468.243
     2549.50     1534.50     1270.00      94.549
     2549.00      218.00      484.00      91.172
     2558.00      319.00     1628.00     100.177
     2553.00      437.00      191.00     194.726
     2553.00      535.00     1054.00     232.996
     2559.00      535.00     1055.00     231.870
     2565.00      535.00     1055.00     244.252
     2582.00      535.00     1055.00     271.266
     2588.00      535.00     1055.00     247.628
     2594.00      535.00     1055.00     271.266
     2611.00      535.00     1056.00     249.880
     2618.00      535.00     1056.00     275.768
     2625.00      535.00     1056.00     273.517
     2643.00      535.00     1057.00     281.396
     2651.00      535.00     1057.00     260.010
     2659.00      535.00     1058.00     271.266
     2550.00      535.00     1039.00      93.423
     2553.00      534.00     1039.00      93.423
     2559.00      535.00     1039.00     105.805
     2565.00      535.00     1040.00     100.177
     2574.00      535.00     1039.00     108.056
     2581.00      535.00     1039.00     110.307
     2595.00      535.00     1040.00     103.554
     2603.00      535.00     1041.00     108.056
     2609.00      536.00     1042.00     101.303
     2616.00      535.00     1041.00     104.679
     2623.00      536.00     1041.00     102.428
     2630.00      535.00     1041.50     104.679
     2637.00      535.00     1042.00     109.182
     2645.00      535.00     1043.00     111.433
     2651.00      535.00     1042.00     117.061
     2659.00      535.00     1043.00     106.930
     2550.00      555.00     1337.00     356.810
     2581.00      553.00     1333.00      68.661
     2550.00      573.00     1613.00     135.070
     2553.00      591.00     1626.00    1930.376
     2595.33      558.00     1601.33     110.307
     2596.00      584.00     1621.00     542.531
     2610.00      580.00     1618.00    1453.129
     2629.00      566.00     1607.00    1395.724
     2553.00      803.00     1320.00     173.340
     2551.00      843.00     1602.00     135.070
     2552.00     1490.00      708.00    1322.561
     2559.00     1492.00      710.00    1328.189
     2582.00     1485.00      699.00    2711.532
     2609.00     1488.00      702.00    1307.929
     2624.00     1499.00      725.00     190.224
     2630.00     1490.00      705.00    3233.803
     2646.00     1496.00      717.00    2470.657
     2550.00     1991.00      656.00     172.214
     2565.33     1980.33      630.00     563.918
     2572.00     1982.00      631.00     534.652
     2594.00     1984.00      637.00     617.946
     2608.00     1991.00      659.00     427.722
     2559.00     1201.00       76.00    1208.877
     2574.00      685.50      148.00     223.991
     2592.00      693.00      146.00    1069.305
     2589.00     1451.00      421.00    1105.323
     2580.00      811.00     1325.00     315.164
     2590.75     1553.00     1545.25      64.158
     2609.00     1250.50      735.00     164.335
     2615.00      713.00      141.00     979.258
     2620.00     1089.00     1585.00      79.916
     2624.00     1210.50      454.00     168.838
     2630.00      984.00      467.00     218.363
     2630.00      238.00      458.00     319.666
     2629.00     1244.00      730.00     334.298
     2664.00     1246.00      731.00      86.670
     2639.00      552.00     1332.00      64.158
     2661.00      551.00     1331.00     112.558
     2653.00     1963.00      112.00     113.684
     2653.00      573.00     1883.00     402.959
     2657.00     1593.00     1811.50     348.931
     2656.00      468.50      168.00     229.619
     2664.00     1234.00      462.00     155.331
     2665.00      535.00     1058.00     260.010
     2681.00      535.00     1058.00     260.010
     2683.00      536.00     1071.00      67.535
     2687.00      536.00     1058.00     249.880
     2693.00      536.00     1071.00      65.284
     2696.00      535.00     1059.00     238.624
     2702.00      535.00     1059.00     228.494
     2709.00      535.00     1059.00     234.121
     2711.00      536.00     1072.00      67.535
     2718.00      535.00     1059.00     208.233
     2724.00      537.00     1072.50      68.661
     2731.00      536.00     1060.00     192.475
     2738.00      536.00     1060.00     187.973
     2738.00      537.00     1073.00      73.163
     2744.00      536.00     1061.00     172.214
     2744.00      537.00     1073.00      69.786
     2752.00      536.00     1061.00     166.586
     2759.00      535.00     1061.00     157.582
     2760.00      538.00     1073.00      66.409
     2767.00      536.00     1062.00     155.331
     2777.00      538.00     1075.00      58.530
     2666.00      536.00     1043.00     110.307
     2672.00      535.00     1043.00      99.051
     2678.00      536.00     1044.00     104.679
     2688.00      536.00     1044.00     102.428
     2694.00      536.00     1045.00     103.554
     2702.00      536.00     1044.00      94.549
     2709.00      536.00     1044.00      94.549
     2715.00      535.00     1045.00      95.675
     2722.00      535.00     1045.00      94.549
     2730.00      535.00     1045.00      88.921
     2737.00      535.00     1046.00      90.047
     2743.00      536.00     1045.00      91.172
     2760.00      535.00     1046.00      88.921
     2775.00      536.00     1048.00      85.544
     2667.00     1033.00     1589.00     115.935
     2674.00     1248.00      733.00     133.944
     2688.00     1249.00      733.00     395.080
     2708.00     1255.00      740.00     371.443
     2665.00     1320.00     1553.00     135.070
     2670.00     1462.00      162.00     324.168
     2665.00     1575.00     1526.00      88.921
     2678.00     1945.00       92.00     172.214
     2674.00      823.00     1594.00     192.475
     2672.00     1298.00     1275.00      83.293
     2681.00       67.00     1698.00      87.796
     2678.00     1716.00      407.00      66.409
     2694.00     1720.00      409.00     163.210
     2683.00      963.00      467.00     102.428
     2689.50     1303.00     1562.50     150.828
     2685.00      201.00      211.00      72.037
     2701.00      949.00      471.00      82.168
     2709.00      497.00      511.00      76.540
     2718.00      953.00      468.00      84.419
     2724.00     1577.00     1824.00     163.210
     2731.00     1532.00     1276.00      56.279
     2744.00     1532.00     1276.00      68.661
     2753.00     1532.00     1278.00      77.665
     2779.00     1530.00     1282.00     164.335
     2780.00     1536.00     1267.00     621.322
     2744.00       49.00     1672.00     118.186
     2738.00      755.00      780.00     142.949
     2731.00     1020.00      464.00     129.442
     2753.00      513.00      790.00      65.284
     2759.00      514.00      791.00      72.037
     2766.00      513.00      793.00      73.163
     2774.00     1568.50     1830.00     442.354
     2771.00      961.00      468.00     267.889
     2766.00      751.00      491.00     195.852
     2790.00      458.00      242.00     516.643
     2791.00      517.00      786.00      86.670
     2802.00      517.00      786.00     102.428
     2821.00      516.00      786.00      65.284
     2784.00      536.00     1047.00      79.916
     2803.00      536.00     1048.00      78.791
     2811.00      536.00     1048.00      68.661
     2826.00      536.00     1049.00      73.163
     2836.50      536.00     1049.00      66.409
     2782.00     1304.00     1562.00     201.480
     2780.00     1482.00      173.00     189.098
     2780.00     1500.00      724.00     106.930
     2788.00     1496.00      716.00      72.037
     2797.00     1497.00      717.00      69.786
     2796.00     1536.00     1269.00     568.420
     2825.00     1526.00     1288.00    1386.719
     2832.00     1525.00     1289.00    1275.287
     2832.00     1533.00     1275.00    2979.421
     2839.00     1533.00     1275.00    2838.723
     2887.00     1516.00     1303.00     191.349
     2893.00     1527.00     1286.00    1089.565
     2780.00     1554.00     1548.00     381.573
     2793.00     1528.00     1570.00     106.930
     2819.00     1546.00     1555.00    1490.273
     2840.00     1533.00     1567.00    1015.277
     2797.00      761.00      772.00     383.824
     2811.00      768.00      765.00     194.726
     2826.00      763.00      771.00     178.968
     2803.00      561.00     1940.00     157.582
     2826.00      490.00      516.00    1931.502
     2840.00      507.00      499.00    1253.901
     2861.00      494.00      513.00    1438.496
     2890.00      502.00      503.00    1054.672
     2868.00     2025.00     1295.00     190.224
     2887.00     2024.00     1301.00     248.754
     2890.00     2024.00     1302.00     248.754
     2894.00     2029.00     1279.00     128.317
     2867.00      826.00     1946.00     205.982
     2879.00      813.00     1944.00     228.494
     2893.00      512.00      795.00     128.317
     2880.00      679.00     1471.00      96.800
     2878.00     1051.00     1948.00     109.182
     2904.50      486.00      223.00     746.262
     2932.00      516.00      789.00     982.635
     2946.00      517.00      789.00     691.109
     2968.00      527.00      764.00    1812.190
     2981.00      521.00      776.00    3829.237
     2904.00      523.00      486.00     142.949
     2904.00     1985.00      356.00     100.177
     2895.00     2022.00     1304.00     252.131
     2902.00     2021.00     1307.00     262.261
     2917.00     2019.00     1313.00     198.103
     2917.00     2029.00     1277.00     508.764
     2924.00     2029.00     1282.00     538.029
     2939.00     2025.00     1291.00     610.067
     2946.00     2024.00     1295.00     587.555
     2975.00     2020.00     1306.00     297.154
     3009.00     2015.00     1329.00     299.405
     3009.00     2020.00     1312.50     473.871
     2903.00      802.00     1695.00     123.814
     2905.00     1293.00     1958.00     596.559
     2925.00     1317.00     1950.00     684.355
     2933.00      245.00      524.00     168.838
     2953.00      246.00      523.00     128.317
     2932.00      260.00      502.00      99.051
     2947.00      984.00      107.00     126.065
     2958.00     1041.00     1704.00     109.182
     2960.00     1375.00      584.00     136.196
     2987.00     1769.00     1301.00     110.307
     2994.00      535.00     1456.00     545.908
     2981.00     1005.00      107.00     156.456
     2989.00      256.00      507.00      88.921
     2990.00      740.00      101.00     897.090
     2996.00     1763.00     1315.00      82.168
     2992.00     1033.00     1704.00     118.186
     2995.00     1744.00      115.00      61.907
     3008.00       12.00     1177.00      73.163
     3002.00      269.00     1916.00      74.289
     3018.00      534.00      752.00     236.373
     3031.00      526.00      766.00    1606.208
     3040.00      526.00      767.00    1328.189
     3069.00      529.00      763.00    4386.401
     3076.00      534.00      753.00    2628.239
     3011.00     1047.00     1704.00     149.703
     3016.00     1268.00     1964.00     633.704
     3010.00     1281.00     1720.00     110.307
     3012.00     1497.00      116.00     270.140
     3011.00     1773.00     1766.33      75.414
     3010.00     1776.00     1762.00      75.414
     3018.00      761.00       96.00     780.030
     3014.00     1003.00      104.00      61.907
     3016.00     1002.00      106.00      61.907
     3031.00      787.00     1690.00     159.833
     3041.00     2007.00      389.00     133.944
     3046.00      275.00      483.00     117.061
     3048.00     1290.00     1718.00     397.331
     3054.00      274.00     1408.00     146.326
     3047.00     1249.00      358.00     186.847
     3046.00     1516.00     1003.00      59.656
     3048.00     1518.00      999.00      59.656
     3054.00     1771.00     1767.00     465.992
     3061.00     1769.00     1770.00     414.215
     3054.00        3.00      206.00     133.944
     3063.00     1761.00      611.00     138.447
     3076.00       20.00     1222.00     165.461
     3082.00       20.00     1223.00     168.838
     3105.00       17.00     1210.00     149.703
     3055.00      772.00     1683.00     165.461
     3083.00      265.00     1261.00     148.577
     3089.00      266.00     1263.00     155.331
     3099.00      266.00     1266.00     138.447
     3069.00     1011.00     1998.00     120.437
     3067.00     1269.00     1724.00     136.196
     3089.00      776.00     1478.00    3583.859
     3074.00     1518.00      999.00      65.284
     3083.00     1518.00      999.00      67.535
     3090.00     1517.00     1006.00      68.661
     3100.00     1518.00      998.00      73.163
     3105.00     1518.00      999.00      73.163
     3105.00     1518.00     1008.00      61.907
     3116.00     1518.00     1000.00      74.289
     3123.00     1518.00      999.00      73.163
     3069.00     1010.50      106.00     155.331
     3090.00      770.00      332.00     562.792
     3088.00     1005.00      348.00     160.959
     3086.00     1265.00     1727.00      66.409
     3102.00     1025.00      348.00      88.921
     3101.00     1013.00     1704.00     127.191
     3124.00      765.00     1471.00     173.340
     3138.00      774.00     1477.00    3060.463
     3152.00      783.00     1482.00    4709.443
     3168.00      771.00     1476.00    1619.715
     3180.00      766.00     1474.00     796.913
     3203.00      767.00     1474.00    1241.519
     3219.00      768.00     1474.00    4901.918
     3133.00     1004.00     1997.00     263.387
     3155.00     1277.00      574.00    5990.358
     3137.00     1253.00     1528.50      73.163
     3138.00     1257.00     1526.00      73.163
     3153.00     1272.00     1531.00     130.568
     3155.00     1281.00     1514.00     189.098
     3135.00     1255.00     1731.00     320.791
     3138.00     1281.00      371.00     247.628
     3147.00     1759.00      607.00     142.949
     3151.00     1035.00      549.00     306.159
     3155.00     1029.00      349.00     198.103
     3153.00      242.00     1742.00      73.163
     3168.00      237.00     1890.00     130.568
     3169.00      999.00     1997.00     244.252
     3169.00     1003.00     1997.00     244.252
     3174.00     1048.00       60.00     120.437
     3177.00     1042.00       59.00     121.563
     3179.00      764.00     1524.00     165.461
     3194.00      776.00     1530.00      77.665
     3187.00      794.00      567.00      84.419
     3203.50     1281.00      577.00    5233.965
     3218.00     1272.00      571.00    5714.590
     3227.00     1286.00      579.00    2409.875
     3189.00      788.00      328.00     117.061
     3205.00      787.00      328.00     536.904
     3211.00     1253.00     1541.00    3623.255
     3234.00     1256.00     1541.00    3016.565
     3196.00     1773.00      637.00      78.791
     3214.00     1773.00      633.00     173.340
     3218.00     1772.00      631.00     173.340
     3208.00      741.00     1962.00      72.037
     3226.00      746.00     1963.00     281.396
     3214.00     1039.00      546.00    1116.579
     3214.00     1023.00     1507.00     794.662
     3220.00      282.00      284.00     683.229
     3214.00      485.00     1922.00      81.042
     3226.00      259.00     1758.00     118.186
     3232.00     1009.00     1507.00     255.508
     3234.00     1270.00     1008.00      57.405
     3237.00     1271.50     1009.50      57.405
     3239.00     1056.00       55.00     284.773
     3249.00      761.00     1470.00    4209.684
     3240.00      986.00     1997.00     103.554
     3240.00     1248.00     1544.00     378.196
     3243.00     1250.00     1492.00      75.414
     3244.00     1261.00      595.00      75.414
     3255.00     1257.00      592.00     111.433
     3240.00     1517.00     1005.00     104.679
     3241.00     1516.00      983.00      69.786
     3246.00     1518.00     1000.00     106.930
     3255.00     1518.00     1002.00     120.437
     3256.00     1516.00      983.00      74.289
     3261.00     1516.00      983.00      74.289
     3267.00     1517.00     1003.00     124.940
     3269.50     1517.00      983.50      70.912
     3277.00     1518.00     1002.00     130.568
     3284.00     1517.00     1002.00     137.321
     3291.00     1516.00      981.00      61.907
     3291.00     1517.00     1004.00     151.954
     3297.00     1518.00     1002.00     158.707
     3304.00     1517.00     1001.00     159.833
     3312.00     1517.00     1001.00     178.968
     3327.00     1518.00     1001.00     196.977
     3339.00     1518.00     1002.00     209.359
     3347.00     1517.00     1001.00     228.494
     3354.00     1518.00     1001.00     242.001
     3246.00     1527.00      609.00     922.979
     3250.00     1041.00      546.00    1074.933
     3251.00     1288.00      529.00     238.624
     3264.00     1279.00      523.00      88.921
     3256.00      988.00     1998.00     323.043
     3251.00      731.50     1958.00     248.754
     3261.00      541.00      303.00      66.409
     3261.00      544.00      301.00      66.409
     3264.00      797.00      564.00     316.289
     3267.00     1005.00     1507.00     238.624
     3283.00     1008.00     1507.00     853.193
     3269.00     1030.00      545.00    1205.500
     3275.00     1455.00     1965.00      68.661
     3283.00      773.00      539.00     504.262
     3277.00     1054.00       56.00     400.708
     3276.00     1032.00      545.00      73.163
     3282.50     1046.00      546.00     458.113
     3299.00      270.00     1275.00     551.536
     3312.00      266.00     1264.00     402.959
     3354.00      262.00     1245.00     151.954
     3280.00      506.00     1794.00      65.284
     3281.00      889.00      529.00      78.791
     3282.00     1309.00       91.00     147.451
     3282.00      732.00      547.00      77.665
     3290.00      788.00      568.00     110.307
     3290.50     1298.00     1519.50     145.200
     3303.00      882.00      530.00      61.907
     3306.00      809.00       20.00      79.916
     3306.00      815.00       19.00      75.414
     3314.00     1734.00     1632.00      60.782
     3320.00     1048.00      548.00     303.908
     3338.00     1047.00      547.00     973.630
     3319.00     1215.00     1913.00     100.177
     3327.00     1808.50      311.00      93.423
     3327.00      765.00      543.00      83.293
     3327.00      790.00       24.00      92.298
     3332.00     1456.00     1964.00     148.577
     3350.00      484.00     1777.00      67.535
     3354.50      804.00      561.50     178.405
     3375.00       26.00      759.00     714.746
     3376.00       23.00      770.00     692.234
     3398.00       38.00      721.00     515.517
     3419.00       33.00      739.00     769.899
     3362.00      811.00      509.00     676.476
     3377.00      809.00      509.00    1384.468
     3393.00      806.00      510.00    5578.394
     3409.00      812.00      507.00    6469.857
     3359.00     1052.00      548.00    1342.822
     3364.00     1067.00       57.00     404.085
     3383.00     1785.00      793.00     149.703
     3362.00     1300.00      535.00     136.196
     3368.00      808.00      559.00     166.586
     3392.00     1448.00     1969.00      77.665
     3393.00     1561.00      271.00      68.661
     3449.00      264.00     1254.00     529.024
     3438.00      235.00     1672.00     243.126
     3444.00      982.00     1419.00     178.968
     3459.00     1448.00     1968.00     200.354
     3471.00      709.00     1761.00     128.317
     3477.00     1221.00     1478.00     315.164
     3471.00     1815.00      320.00     113.684
     3477.00     1569.00      278.00      84.419
     3481.00      584.00       95.00     212.735
     3479.00      900.00     1576.50      76.540
     3488.00      947.00     1816.00     453.610
     3505.00     1429.00     1934.00     130.568
     3506.00      571.50       99.00     289.275
     3512.00     1114.00      241.00     219.489
     3506.00      460.00     1703.00      73.163
     3508.00      723.00     1768.00     417.592
     3521.00      725.00     1768.00     516.643
     3510.00      987.00     1418.00     354.559
     3519.00      509.00     1311.00     153.079
     3512.00      746.00     1429.00      70.912
     3569.00     1536.00     1110.00     261.135
     3540.00      747.00     1364.00     200.354
     3531.00     1208.00     1869.00      93.423
     3547.00      996.00     1419.00     416.466
     3555.00     1067.00      634.00     778.904
     3553.00     1211.00     1869.00     106.930
     3555.00     1456.00     1921.00     149.703
     3557.00      219.00     1652.00     175.591
     3555.00      602.00       88.00      63.033
     3556.00      605.00       86.00      63.033
     3560.00     1238.00     1470.00     831.807
     3562.00     1349.00      293.00     592.057
     3557.00      698.00     1756.00      87.796
     3573.00     1783.00      775.00     401.833
     3564.50      466.00     1708.50     172.214
     3570.00     1539.00      730.00     131.693
     3568.00      509.00     1311.00     126.065
     3578.00      702.00     1760.00     117.061
     3584.00     1508.00     1128.00     156.456
     3577.00      939.00     1815.00      97.926
     3584.00     1239.00     1469.00     876.830
